Wavelength (nm),Reflectance (%)
448,79.91
452,81.4
456,82.97
460,84.32
464,85.52
468,86.47
472,87.26
476,87.96
480,88.74
484,89.43
488,90.06
492,90.65
496,91.14
500,91.6
504,92.07
508,92.48
512,92.84
516,93.2
520,93.5
524,93.75
528,93.97
532,94.12
536,94.17
540,94.21
544,94.35
548,94.61
552,94.83
556,94.91
560,94.94
564,95.08
568,95.26
572,95.35
576,95.37
580,95.35
584,95.43
588,95.5
592,95.64
596,95.81
600,95.93
604,95.98
608,96.12
612,96.31
616,96.55
620,96.74
624,96.83
628,96.95
632,97.07
636,97.15
640,97.27
644,97.42
648,97.58
652,97.75
656,97.89
660,98.07
664,98.19
668,98.31
672,98.45
676,98.53
680,98.65
684,98.85
688,99.05
692,99.16
696,99.2
700,99.23
704,99.25
708,99.32
712,99.46
716,99.52
720,99.47
724,99.42
728,99.41
732,99.34
736,99.07
740,99.02
744,99.23
748,99.44
752,99.73
756,99.83
760,99.87
764,99.91
768,99.98
772,100
776,99.88
780,99.77
784,99.7
788,99.7
792,99.63
796,99.45
800,99.29
804,99.25
808,99.25
812,99.21
816,99.08
820,98.92
824,98.75
828,98.75
832,98.82
836,98.89
840,99.08
844,99.24
848,99.3
852,99.36
856,99.39
860,99.27
864,99.27
868,99.24
872,99.22
876,99.24
880,99.12
884,98.9
888,98.6
892,98.47
896,98.34
900,98.01
904,97.48
908,96.71
912,95.96
916,95.53
920,95.42
924,95.34
928,94.97
932,93.99
936,92.08
940,89.65
944,88.21
948,88.97
952,90.66
956,91.57
960,89.45
964,86.19
968,85.13
972,88.47
976,92.81
980,95.93
984,97.73
988,98.74
992,99.31
996,99.57
1000,99.69
1004,99.83
1008,99.95
1012,99.95
1016,99.92
1020,99.88
1024,99.83
1028,99.8
1032,99.79
1036,99.82
1040,99.8
1044,99.78
1048,99.69
1052,99.64
1056,99.57
1060,99.47
1064,99.37
1068,99.3
1072,99.25
1076,99.21
1080,99.15
1084,99.09
1088,98.93
1092,98.72
1096,98.53
1100,98.39
1104,98.26
1108,98.09
1112,97.96
1116,97.83
1120,97.82
1124,97.83
1128,97.86
1132,97.82
1136,97.77
1140,97.67
1144,97.5
1148,97.38
1152,97.17
1156,96.97
1160,96.75
1164,96.59
1168,96.49
1172,96.33
1176,96.1
1180,95.85
1184,95.5
1188,95.1
1192,94.63
1196,94.14
1200,93.61
1204,93.02
1208,92.3
1212,91.36
1216,90.25
1220,89.04
1224,87.7
1228,86.18
1232,84.64
1236,83.04
1240,81.58
1244,81.05
1248,81.54
1252,82.46
1256,83.43
1260,84.26
1264,84.47
1268,83.92
1272,82.89
1276,81.59
1280,79.89
1284,77.75
1288,75.44
1292,73.06
1296,70.36
1300,67.56
1304,65.66
1308,65.32
1312,65.47
1316,65.29
1320,64.6
1324,63.98
1328,63.6
1332,63.09
1336,62.14
1340,60.62
1344,58.43
1348,55.32
1352,51.26
1356,47.44
1360,45.55
1364,43.71
1368,39.38
1372,31.83
1376,24.26
1380,21.42
1384,24.83
1388,31.36
1392,37.42
1396,40.34
1400,39.31
1404,33.4
1408,24.06
1412,16.77
1416,19.26
1420,31.08
1424,44.84
1428,56.38
1432,64.36
1436,69.55
1440,72.81
1444,75.03
1448,77.21
1452,79.77
1456,82.12
1460,83.73
1464,84.69
1468,85.41
1472,86.12
1476,86.64
1480,86.96
1484,87.21
1488,87.47
1492,87.68
1496,87.85
1500,88.09
1504,88.39
1508,88.64
1512,88.83
1516,88.97
1520,89.09
1524,89.3
1528,89.32
1532,89.24
1536,89.1
1540,88.99
1544,88.89
1548,88.87
1552,88.85
1556,88.83
1560,88.88
1564,88.91
1568,88.95
1572,89.05
1576,89.15
1580,89.31
1584,89.48
1588,89.63
1592,89.69
1596,89.74
1600,89.85
1604,89.91
1608,89.9
1612,89.87
1616,89.76
1620,89.59
1624,89.54
1628,89.54
1632,89.22
1636,88.9
1640,88.64
1644,88.44
1648,88.23
1652,88.03
1656,87.87
1660,87.65
1664,87.46
1668,87.22
1672,86.96
1676,86.67
1680,86.36
1684,86.06
1688,85.73
1692,85.41
1696,85
1700,84.53
1704,84.05
1708,83.59
1712,83.16
1716,82.66
1720,82.16
1724,81.58
1728,80.85
1732,79.98
1736,78.95
1740,78.03
1744,77.32
1748,76.76
1752,76.23
1756,75.6
1760,74.82
1764,73.75
1768,72.44
1772,70.88
1776,69.13
1780,67.08
1784,64.75
1788,62.44
1792,60.48
1796,59.18
1800,58.56
1804,58.59
1808,58.92
1812,59.1
1816,58.84
1820,58.31
1824,58.01
1828,58.35
1832,58.91
1836,59.57
1840,60.65
1844,62.68
1848,64.98
1852,66.76
1856,67.68
1860,67.97
1864,67.84
1868,67.42
1872,66.83
1876,66.13
1880,65.38
1884,64.48
1888,63.25
1892,61.92
1896,60.38
1900,58.83
1904,57.41
1908,56.17
1912,55.1
1916,54.14
1920,53.27
1924,52.4
1928,51.54
1932,50.75
1936,50.14
1940,49.69
1944,49.37
1948,49.22
1952,49.27
1956,49.42
1960,49.68
1964,49.83
1968,49.87
1972,49.83
1976,49.78
1980,49.6
1984,49.35
1988,49.03
1992,48.69
1996,48.4
2000,48.17
2004,47.93
2008,47.6
2012,47.02
2016,46.22
2020,45.35
2024,44.49
2028,43.66
2032,42.79
2036,41.84
2040,40.73
2044,39.45
2048,37.96
2052,36.47
2056,35.26
2060,34.53
2064,33.88
2068,33.05
2072,32.04
2076,31.09
2080,30.18
2084,29.27
2088,28.37
2092,27.77
2096,27.14
2100,26.08
2104,24.35
2108,22.79
2112,22.21
2116,22.23
2120,22.15
2124,21.27
2128,19.54
2132,17.4
2136,15.21
2140,13.29
2144,11.79
2148,10.4
2152,8.86
2156,6.8
2160,4.72
2164,2.94
2168,1.92
2172,1.26
2176,0.99
2180,1.34
2184,2.37
2188,3.64
2192,4.2
2196,3.15
2200,1.19
2204,0
2208,0.92
2212,3.61
2216,6.59
2220,9.43
2224,11.93
2228,13.8
2232,14.84
2236,15.1
2240,14.68
2244,13.75
2248,12.68
2252,11.78
2256,11.34
2260,11.27
2264,11.32
2268,11.29
2272,10.96
2276,10.35
2280,9.56
2284,8.52
2288,7.39
2292,6.32
2296,5.51
2300,5.06
2304,4.95
2308,5.02
2312,5.18
2316,5.34
2320,5.37
2324,5.35
2328,5.35
2332,5.29
2336,5.09
2340,4.59
2344,3.96
2348,3.41
2352,3.22
2356,3.33
2360,3.53
2364,3.58
2368,3.22
2372,2.69
2376,2.23
2380,2.07
2384,2.31
2388,2.79
2392,3.35
2396,3.85
2400,4.33
2404,4.7
2408,4.89
2412,5
2416,5.17
2420,5.32
2424,5.32
2428,5.11
2432,4.78
2436,4.52
2440,4.62
2444,4.93
2448,5.34
2452,5.84
2456,6.26
2460,6.62
2464,7
2468,7.23
2472,7.32
2476,7.28
2480,7.32
2484,7.6
