Wavelength (nm),Reflectance (%)
448,65.31
452,66.26
456,67.66
460,69.05
464,69.99
468,70.67
472,71.36
476,71.96
480,72.44
484,73.14
488,73.91
492,74.61
496,75.25
500,75.91
504,76.52
508,77.02
512,77.48
516,78.1
520,78.47
524,78.85
528,79.14
532,79.37
536,79.62
540,79.93
544,80.31
548,80.66
552,80.98
556,81.36
560,81.83
564,82.25
568,82.33
572,82.47
576,82.71
580,82.87
584,83.03
588,83.03
592,83.19
596,83.32
600,83.46
604,83.44
608,83.4
612,83.57
616,83.76
620,83.9
624,84.04
628,84.17
632,83.98
636,83.96
640,83.85
644,83.89
648,84.01
652,84.18
656,84.29
660,84.39
664,84.42
668,84.45
672,84.45
676,84.54
680,84.59
684,84.44
688,84.3
692,84.42
696,84.54
700,84.61
704,84.68
708,84.69
712,84.73
716,84.82
720,84.94
724,85.1
728,85.02
732,85.04
736,85.22
740,85.21
744,85.1
748,85.53
752,85.74
756,86.3
760,86.51
764,86.71
768,86.88
772,87.04
776,87
780,87.15
784,87.27
788,87.37
792,87.36
796,87.38
800,87.56
804,87.54
808,87.6
812,87.6
816,87.69
820,87.93
824,88.14
828,88.21
832,88.21
836,88.32
840,88.57
844,88.8
848,88.94
852,89.02
856,89.07
860,89.03
864,89.12
868,89.11
872,89.15
876,89.13
880,89.08
884,89.08
888,89.16
892,89.13
896,89.07
900,88.83
904,88.6
908,88.28
912,88.02
916,87.99
920,88.01
924,88.05
928,88.04
932,87.9
936,87.51
940,86.97
944,86.23
948,85.29
952,84.36
956,83.86
960,83.43
964,83.08
968,83.8
972,86.42
976,89.11
980,90.47
984,90.97
988,91.3
992,91.48
996,91.58
1000,91.74
1004,91.82
1008,91.9
1012,91.87
1016,91.96
1020,92.17
1024,92.27
1028,92.35
1032,92.44
1036,92.53
1040,92.64
1044,92.67
1048,92.69
1052,92.77
1056,92.77
1060,92.73
1064,92.6
1068,92.62
1072,92.69
1076,92.68
1080,92.76
1084,92.87
1088,92.88
1092,93.01
1096,93.09
1100,93.05
1104,92.99
1108,92.98
1112,93.02
1116,93.15
1120,93.2
1124,93.24
1128,93.35
1132,93.48
1136,93.61
1140,93.68
1144,93.73
1148,93.82
1152,93.88
1156,93.94
1160,93.97
1164,93.95
1168,93.87
1172,93.85
1176,93.82
1180,93.83
1184,93.9
1188,93.84
1192,93.71
1196,93.46
1200,93.14
1204,92.83
1208,92.68
1212,92.55
1216,92.25
1220,91.64
1224,90.77
1228,89.53
1232,88.22
1236,87.31
1240,87.16
1244,87.78
1248,88.82
1252,89.66
1256,90.18
1260,90.61
1264,90.84
1268,90.87
1272,90.67
1276,90.27
1280,89.48
1284,88.01
1288,86.1
1292,84.28
1296,82.84
1300,81.66
1304,80.62
1308,79.8
1312,79.24
1316,78.75
1320,78.01
1324,77.03
1328,76.15
1332,75.65
1336,75.39
1340,75.22
1344,74.45
1348,72.08
1352,68.26
1356,64.74
1360,63.51
1364,64.14
1368,65.03
1372,64.75
1376,62.79
1380,59.54
1384,54.96
1388,48.08
1392,39.99
1396,34.41
1400,33.84
1404,36.22
1408,38.25
1412,39.08
1416,42.6
1420,54.74
1424,69.19
1428,78.93
1432,83.51
1436,86.19
1440,88
1444,89.27
1448,90.24
1452,91.19
1456,92.2
1460,92.99
1464,93.51
1468,94.05
1472,94.71
1476,95.36
1480,95.83
1484,96.15
1488,96.55
1492,96.91
1496,97.25
1500,97.55
1504,97.91
1508,98.22
1512,98.46
1516,98.56
1520,98.65
1524,98.72
1528,98.71
1532,98.76
1536,98.74
1540,98.57
1544,98.66
1548,98.73
1552,98.73
1556,98.69
1560,98.67
1564,98.71
1568,98.69
1572,98.67
1576,98.86
1580,99.14
1584,99.14
1588,99.3
1592,99.44
1596,99.57
1600,99.69
1604,99.8
1608,99.89
1612,99.95
1616,99.92
1620,99.81
1624,99.79
1628,99.88
1632,99.98
1636,100
1640,99.87
1644,99.73
1648,99.6
1652,99.45
1656,99.3
1660,99.14
1664,99.08
1668,99.03
1672,98.9
1676,98.6
1680,98.37
1684,98.17
1688,98.07
1692,97.94
1696,97.74
1700,97.56
1704,97.43
1708,97.2
1712,96.78
1716,96.2
1720,95.81
1724,95.39
1728,94.92
1732,94.43
1736,94.07
1740,93.84
1744,93.67
1748,93.41
1752,93.11
1756,92.7
1760,92.13
1764,91.33
1768,90.34
1772,89.38
1776,88.36
1780,87.22
1784,86.02
1788,84.96
1792,84.15
1796,83.52
1800,82.88
1804,82.16
1808,81.26
1812,80.32
1816,79.77
1820,80.02
1824,81
1828,82.07
1832,82.53
1836,82.11
1840,81.54
1844,81.88
1848,83.77
1852,85.73
1856,86.98
1860,87.23
1864,86.89
1868,86.18
1872,85.28
1876,84.21
1880,82.98
1884,81.52
1888,79.91
1892,78.03
1896,75.99
1900,73.96
1904,72.25
1908,71.13
1912,70.61
1916,70.74
1920,71.12
1924,71.45
1928,71.34
1932,70.9
1936,70.49
1940,70.36
1944,70.64
1948,71.03
1952,71.27
1956,71.3
1960,71.31
1964,71.34
1968,71.46
1972,71.54
1976,71.6
1980,71.67
1984,71.7
1988,71.56
1992,71.26
1996,70.96
2000,70.67
2004,70.34
2008,69.96
2012,69.53
2016,69.13
2020,68.69
2024,68.14
2028,67.45
2032,66.83
2036,66.39
2040,66.02
2044,65.49
2048,64.77
2052,63.99
2056,63.38
2060,62.65
2064,61.44
2068,59.96
2072,58.52
2076,57.19
2080,55.67
2084,54.19
2088,53.21
2092,52.88
2096,52.64
2100,51.99
2104,50.28
2108,47.9
2112,45.79
2116,44.72
2120,43.9
2124,42.87
2128,41.29
2132,39.05
2136,35.77
2140,31.38
2144,26.2
2148,21.11
2152,17.08
2156,14.58
2160,13.56
2164,13.65
2168,14.39
2172,15.36
2176,16.21
2180,16.47
2184,15.76
2188,14.43
2192,12.98
2196,11.1
2200,7.7
2204,4.73
2208,5.99
2212,12.95
2216,21.44
2220,27.89
2224,31
2228,32.09
2232,32.05
2236,31.43
2240,30.73
2244,30.35
2248,30.06
2252,29.64
2256,28.96
2260,28.15
2264,27.29
2268,26.22
2272,24.97
2276,23.67
2280,22.43
2284,21.39
2288,20.63
2292,19.99
2296,19.35
2300,18.46
2304,17.36
2308,16.17
2312,15.16
2316,14.59
2320,14.31
2324,14.31
2328,14.73
2332,15.31
2336,15.67
2340,15.49
2344,14.78
2348,13.76
2352,12.71
2356,11.84
2360,11.43
2364,11.17
2368,10.78
2372,9.87
2376,8.84
2380,8.22
2384,8.38
2388,9.17
2392,10.26
2396,11.33
2400,12.09
2404,12.36
2408,12.26
2412,11.87
2416,11.3
2420,10.57
2424,9.62
2428,8.55
2432,7.37
2436,6.2
2440,5.23
2444,4.52
2448,3.89
2452,3.38
2456,2.94
2460,2.68
2464,2.48
2468,2.25
2472,1.98
2476,1.66
2480,1.08
2484,0.49
2488,0.02
2492,0
2496,0.33
2500,0.74
