Wavelength (nm),Reflectance (%)
448,48.56
452,48.79
456,49.02
460,49.24
464,49.45
468,49.58
472,49.61
476,49.6
480,49.61
484,49.72
488,49.89
492,50.13
496,50.28
500,50.21
504,50.16
508,50.25
512,50.38
516,50.45
520,50.54
524,50.49
528,50.37
532,50.3
536,50.3
540,50.45
544,50.36
548,50.21
552,50.11
556,50.09
560,50.05
564,50.01
568,49.89
572,49.72
576,49.64
580,49.52
584,49.35
588,49.34
592,49.39
596,49.31
600,49.12
604,48.94
608,48.91
612,48.89
616,48.78
620,48.65
624,48.66
628,48.62
632,48.48
636,48.4
640,48.37
644,48.28
648,48.16
652,48.11
656,48.13
660,48.08
664,47.94
668,47.88
672,47.92
676,47.92
680,47.94
684,47.83
688,47.74
692,47.8
696,47.83
700,47.72
704,47.73
708,47.67
712,47.71
716,47.65
720,47.55
724,47.61
728,47.59
732,47.59
736,47.61
740,47.56
744,47.55
748,47.58
752,47.56
756,47.64
760,47.75
764,47.76
768,47.69
772,47.76
776,47.87
780,47.84
784,47.81
788,47.87
792,47.89
796,47.9
800,48.04
804,48.04
808,47.95
812,48.02
816,48.12
820,48.18
824,48.18
828,48.16
832,48.11
836,48.05
840,47.99
844,47.98
848,47.94
852,47.9
856,47.82
860,47.78
864,47.8
868,47.81
872,47.78
876,47.76
880,47.7
884,47.69
888,47.7
892,47.74
896,47.8
900,47.8
904,47.82
908,47.87
912,47.87
916,47.86
920,47.9
924,47.92
928,48
932,48.08
936,48.12
940,48.17
944,48.27
948,48.38
952,48.46
956,48.52
960,48.59
964,48.65
968,48.68
972,48.84
976,49
980,49.17
984,49.32
988,49.41
992,49.51
996,49.63
1000,49.73
1004,49.77
1008,49.85
1012,49.91
1016,50.01
1020,50.02
1024,50.09
1028,50.17
1032,50.17
1036,50.16
1040,50.16
1044,50.2
1048,50.25
1052,50.26
1056,50.29
1060,50.31
1064,50.36
1068,50.38
1072,50.38
1076,50.45
1080,50.45
1084,50.48
1088,50.49
1092,50.52
1096,50.51
1100,50.5
1104,50.52
1108,50.57
1112,50.61
1116,50.59
1120,50.61
1124,50.68
1128,50.67
1132,50.66
1136,50.69
1140,50.69
1144,50.68
1148,50.71
1152,50.7
1156,50.69
1160,50.7
1164,50.68
1168,50.69
1172,50.74
1176,50.73
1180,50.74
1184,50.78
1188,50.84
1192,50.9
1196,50.88
1200,50.87
1204,50.88
1208,50.92
1212,51
1216,51.03
1220,51.04
1224,51.08
1228,51.12
1232,51.1
1236,51.07
1240,51.14
1244,51.16
1248,51.19
1252,51.24
1256,51.25
1260,51.24
1264,51.29
1268,51.37
1272,51.38
1276,51.38
1280,51.35
1284,51.29
1288,51.24
1292,51.14
1296,51.12
1300,51.04
1304,50.98
1308,50.93
1312,50.85
1316,50.81
1320,50.77
1324,50.73
1328,50.74
1332,50.72
1336,50.6
1340,50.53
1344,50.47
1348,50.31
1352,49.99
1356,49.6
1360,49.33
1364,49.09
1368,48.86
1372,48.5
1376,47.84
1380,46.81
1384,45.49
1388,44.09
1392,42.82
1396,41.82
1400,41.07
1404,40.37
1408,39.47
1412,38.41
1416,38.13
1420,39.62
1424,42.04
1428,44.11
1432,45.43
1436,46.37
1440,47
1444,47.42
1448,47.72
1452,47.95
1456,48.13
1460,48.27
1464,48.33
1468,48.4
1472,48.49
1476,48.7
1480,48.95
1484,49.13
1488,49.29
1492,49.47
1496,49.68
1500,49.8
1504,49.9
1508,50.02
1512,50.15
1516,50.28
1520,50.4
1524,50.55
1528,50.69
1532,50.73
1536,50.82
1540,50.91
1544,51.06
1548,51.17
1552,51.28
1556,51.29
1560,51.31
1564,51.35
1568,51.39
1572,51.39
1576,51.47
1580,51.5
1584,51.5
1588,51.56
1592,51.63
1596,51.64
1600,51.66
1604,51.69
1608,51.68
1612,51.74
1616,51.75
1620,51.75
1624,51.5
1628,51.47
1632,51.58
1636,51.44
1640,51.39
1644,51.51
1648,51.41
1652,51.35
1656,51.47
1660,51.57
1664,51.55
1668,51.42
1672,51.46
1676,51.37
1680,51.33
1684,51.1
1688,51.22
1692,51.21
1696,51.09
1700,50.93
1704,51.02
1708,51.02
1712,50.82
1716,50.88
1720,50.76
1724,50.7
1728,50.8
1732,50.78
1736,50.59
1740,50.6
1744,50.43
1748,50.37
1752,50.39
1756,50.15
1760,50.12
1764,50
1768,49.87
1772,49.79
1776,49.71
1780,49.49
1784,49.5
1788,49.41
1792,49.33
1796,49.26
1800,49.18
1804,49.17
1808,49.06
1812,48.86
1816,48.9
1820,48.93
1824,48.94
1828,48.9
1832,48.76
1836,48.64
1840,48.65
1844,48.65
1848,48.59
1852,48.57
1856,48.52
1860,48.27
1864,47.9
1868,47.63
1872,47.12
1876,46.44
1880,45.61
1884,44.57
1888,43.25
1892,41.65
1896,39.88
1900,38.14
1904,36.63
1908,35.55
1912,34.99
1916,34.95
1920,35.22
1924,35.56
1928,36.04
1932,36.42
1936,36.71
1940,36.96
1944,37.12
1948,37.29
1952,37.47
1956,37.61
1960,37.8
1964,37.95
1968,38.12
1972,38.33
1976,38.46
1980,38.64
1984,38.88
1988,39.14
1992,39.36
1996,39.56
2000,39.79
2004,40.04
2008,40.23
2012,40.37
2016,40.59
2020,40.7
2024,40.9
2028,41.03
2032,41.08
2036,41.11
2040,41.32
2044,41.35
2048,41.52
2052,41.56
2056,41.52
2060,41.4
2064,41.56
2068,41.59
2072,41.51
2076,41.45
2080,41.41
2084,41.23
2088,41.12
2092,41.02
2096,40.82
2100,40.77
2104,40.62
2108,40.27
2112,40
2116,39.73
2120,39.44
2124,39.28
2128,39.11
2132,38.79
2136,38.26
2140,37.39
2144,36.36
2148,35.19
2152,34.05
2156,33.09
2160,32.44
2164,32.09
2168,31.84
2172,31.49
2176,31.26
2180,30.81
2184,30.05
2188,29.12
2192,28.2
2196,27.35
2200,26.45
2204,25.66
2208,25.56
2212,26.69
2216,28.56
2220,30.38
2224,31.68
2228,32.41
2232,32.73
2236,32.86
2240,33.07
2244,33.42
2248,33.77
2252,33.98
2256,34.13
2260,34.36
2264,34.24
2268,34.17
2272,34.1
2276,33.93
2280,33.7
2284,33.51
2288,33.24
2292,32.87
2296,32.62
2300,32.29
2304,31.76
2308,31.25
2312,30.72
2316,30.39
2320,30.07
2324,29.77
2328,29.51
2332,29.21
2336,28.93
2340,28.61
2344,28.29
2348,27.91
2352,27.78
2356,27.74
2360,27.77
2364,27.79
2368,27.68
2372,27.36
2376,27.05
2380,26.83
2384,26.84
2388,26.89
2392,26.92
2396,26.91
2400,26.98
2404,26.97
2408,26.88
2412,26.73
2416,26.53
2420,26.32
2424,26.09
2428,25.88
2432,25.66
2436,25.48
2440,25.36
2444,25.32
2448,25.33
2452,25.38
2456,25.47
2460,25.59
2464,25.72
2468,25.84
2472,25.95
2476,25.96
2480,25.95
2484,25.98
2488,26.1
2492,26.26
2496,26.43
2500,26.81
