Wavelength (nm),Reflectance (%)
448,61.21
452,61.66
456,62.13
460,62.54
464,63.05
468,63.74
472,64.35
476,65.02
480,65.54
484,66.02
488,66.54
492,67.14
496,67.74
500,68.33
504,69.07
508,69.77
512,70.39
516,71.12
520,71.85
524,72.55
528,73.19
532,73.88
536,74.7
540,75.42
544,76.11
548,76.87
552,77.59
556,78.2
560,78.8
564,79.44
568,80.11
572,80.64
576,81.11
580,81.65
584,82.21
588,82.75
592,83.42
596,83.78
600,84.16
604,84.55
608,85.05
612,85.32
616,85.57
620,85.83
624,86.09
628,86.3
632,86.57
636,86.89
640,87.13
644,87.43
648,87.72
652,87.97
656,88.21
660,88.3
664,88.41
668,88.67
672,88.95
676,89.12
680,89.23
684,89.38
688,89.55
692,89.72
696,89.94
700,90.25
704,90.53
708,90.84
712,91.14
716,91.23
720,91.38
724,91.51
728,91.66
732,91.92
736,92.2
740,92.31
744,92.37
748,92.41
752,92.56
756,92.84
760,93.08
764,93.17
768,93.23
772,93.28
776,93.34
780,93.56
784,93.8
788,94.01
792,94.08
796,94.11
800,94.32
804,94.54
808,94.84
812,95.08
816,95.03
820,94.86
824,94.84
828,94.81
832,94.77
836,94.68
840,94.72
844,94.87
848,95.01
852,95.01
856,94.81
860,94.81
864,94.9
868,94.9
872,94.79
876,94.67
880,94.73
884,94.85
888,94.87
892,94.85
896,94.93
900,95.06
904,95.06
908,94.89
912,94.7
916,94.63
920,94.62
924,94.59
928,94.54
932,94.47
936,94.28
940,94.02
944,93.66
948,93.14
952,92.55
956,92.22
960,91.99
964,91.56
968,91.44
972,92.64
976,94.33
980,95.5
984,95.96
988,96.28
992,96.53
996,96.73
1000,96.93
1004,97.14
1008,97.32
1012,97.47
1016,97.6
1020,97.73
1024,97.81
1028,97.84
1032,97.94
1036,98.09
1040,98.22
1044,98.27
1048,98.28
1052,98.39
1056,98.61
1060,98.82
1064,98.98
1068,99.17
1072,99.37
1076,99.5
1080,99.51
1084,99.53
1088,99.62
1092,99.71
1096,99.77
1100,99.83
1104,99.9
1108,100
1112,100
1116,99.92
1120,99.85
1124,99.9
1128,99.92
1132,99.87
1136,99.82
1140,99.75
1144,99.62
1148,99.42
1152,99.24
1156,99.11
1160,99.12
1164,99.17
1168,99.21
1172,99.21
1176,99.27
1180,99.36
1184,99.39
1188,99.32
1192,99.21
1196,99.1
1200,98.94
1204,98.75
1208,98.56
1212,98.4
1216,98.18
1220,97.88
1224,97.36
1228,96.47
1232,95.32
1236,94.26
1240,93.65
1244,93.62
1248,94.05
1252,94.56
1256,94.95
1260,95.24
1264,95.5
1268,95.6
1272,95.44
1276,95.07
1280,94.48
1284,93.48
1288,91.89
1292,90.11
1296,88.56
1300,87.25
1304,85.82
1308,84.37
1312,83.38
1316,82.81
1320,82.17
1324,81.13
1328,80.05
1332,79.2
1336,78.62
1340,78.16
1344,77.59
1348,76.1
1352,72.88
1356,68.86
1360,65.92
1364,65.01
1368,64.93
1372,64.28
1376,61.87
1380,57.57
1384,52.07
1388,45.92
1392,39.52
1396,34.49
1400,32.77
1404,33.64
1408,35.07
1412,34.1
1416,32.81
1420,37.42
1424,48.79
1428,59.73
1432,66.03
1436,69.78
1440,72.42
1444,74.28
1448,75.54
1452,76.43
1456,77.16
1460,77.79
1464,78.31
1468,78.81
1472,79.41
1476,80.18
1480,81.01
1484,81.77
1488,82.39
1492,82.83
1496,83.23
1500,83.69
1504,84.28
1508,84.91
1512,85.47
1516,85.87
1520,86.17
1524,86.5
1528,86.88
1532,87.29
1536,87.63
1540,87.95
1544,88.22
1548,88.44
1552,88.64
1556,88.73
1560,88.8
1564,88.88
1568,88.96
1572,89.02
1576,89.03
1580,89.09
1584,89.29
1588,89.56
1592,89.79
1596,89.93
1600,89.96
1604,89.96
1608,89.95
1612,89.86
1616,89.8
1620,89.79
1624,89.81
1628,89.79
1632,89.78
1636,89.79
1640,89.79
1644,89.68
1648,89.53
1652,89.47
1656,89.45
1660,89.42
1664,89.29
1668,89.11
1672,88.84
1676,88.5
1680,88.21
1684,88.03
1688,87.88
1692,87.7
1696,87.46
1700,87.26
1704,87.01
1708,86.75
1712,86.42
1716,86.04
1720,85.63
1724,85.2
1728,84.86
1732,84.56
1736,84.23
1740,83.85
1744,83.43
1748,83.06
1752,82.64
1756,82.15
1760,81.47
1764,80.72
1768,79.97
1772,79.18
1776,78.32
1780,77.3
1784,76.22
1788,75.18
1792,74.39
1796,73.81
1800,73.42
1804,73.06
1808,72.6
1812,72.07
1816,71.67
1820,71.64
1824,71.93
1828,72.18
1832,72.08
1836,71.65
1840,71.3
1844,71.6
1848,72.39
1852,72.97
1856,72.76
1860,71.81
1864,70.26
1868,68.05
1872,65.17
1876,61.8
1880,58.07
1884,53.85
1888,49.17
1892,44.53
1896,40.64
1900,38.06
1904,36.69
1908,36.22
1912,36.44
1916,37.08
1920,37.88
1924,38.55
1928,39.14
1932,39.65
1936,40.15
1940,40.64
1944,41.18
1948,41.8
1952,42.4
1956,42.95
1960,43.48
1964,44.04
1968,44.7
1972,45.35
1976,45.97
1980,46.5
1984,46.97
1988,47.39
1992,47.76
1996,48.15
2000,48.52
2004,48.94
2008,49.32
2012,49.58
2016,49.61
2020,49.5
2024,49.39
2028,49.28
2032,49.21
2036,49.11
2040,48.9
2044,48.58
2048,48.16
2052,47.71
2056,47.17
2060,46.46
2064,45.56
2068,44.58
2072,43.62
2076,42.62
2080,41.58
2084,40.63
2088,39.95
2092,39.41
2096,38.78
2100,37.77
2104,36.27
2108,34.66
2112,33.35
2116,32.47
2120,31.58
2124,30.38
2128,28.71
2132,26.41
2136,23.33
2140,19.59
2144,15.59
2148,12
2152,9.22
2156,7.36
2160,6.44
2164,6.23
2168,6.44
2172,6.78
2176,6.96
2180,6.79
2184,6.15
2188,5.14
2192,3.97
2196,2.46
2200,0.78
2204,0
2208,1.68
2212,5.85
2216,10.68
2220,14.62
2224,17.04
2228,18.28
2232,18.71
2236,18.79
2240,18.79
2244,18.79
2248,18.7
2252,18.43
2256,17.97
2260,17.34
2264,16.62
2268,15.91
2272,15.23
2276,14.55
2280,13.88
2284,13.29
2288,12.78
2292,12.26
2296,11.6
2300,10.78
2304,9.94
2308,9.16
2312,8.55
2316,8.06
2320,7.77
2324,7.71
2328,8.12
2332,8.59
2336,8.76
2340,8.29
2344,7.64
2348,7.06
2352,6.69
2356,6.44
2360,6.33
2364,6.29
2368,6.21
2372,5.87
2376,5.39
2380,5.04
2384,5.01
2388,5.47
2392,6.29
2396,7.23
2400,8.07
2404,8.61
2408,8.89
2412,8.97
2416,8.92
2420,8.82
2424,8.67
2428,8.45
2432,8.21
2436,7.98
2440,7.83
2444,7.79
2448,7.85
2452,8.07
2456,8.41
2460,8.87
2464,9.48
2468,10.13
2472,10.72
2476,11.24
2480,11.88
2484,12.73
2488,13.73
2492,14.88
2496,16.27
2500,17.93
