Wavelength (nm),Reflectance (%)
400,74.45
401,74.9
402,74.96
403,75.21
404,75.28
405,75.43
406,75.65
407,75.71
408,76.02
409,76.08
410,76.12
411,76.34
412,76.4
413,76.65
414,76.72
415,76.88
416,77.04
417,77.16
418,77.34
419,77.43
420,77.56
421,77.78
422,77.84
423,78.04
424,78.3
425,78.32
426,78.47
427,78.66
428,78.73
429,78.98
430,79.11
431,79.25
432,79.32
433,79.47
434,79.62
435,79.52
436,79.83
437,79.95
438,80.07
439,80.32
440,80.39
441,80.58
442,80.67
443,80.85
444,80.89
445,81.03
446,81.2
447,81.37
448,81.36
449,81.53
450,81.63
451,81.76
452,81.8
453,81.84
454,81.87
455,82.03
456,81.95
457,82.04
458,82.14
459,82.28
460,82.23
461,82.16
462,82.27
463,82.28
464,82.39
465,82.46
466,82.57
467,82.51
468,82.6
469,82.71
470,82.84
471,82.79
472,82.79
473,82.82
474,82.99
475,83.02
476,83.02
477,83.1
478,83.18
479,83.23
480,83.22
481,83.26
482,83.34
483,83.31
484,83.37
485,83.43
486,83.45
487,83.46
488,83.49
489,83.49
490,83.66
491,83.63
492,83.71
493,83.75
494,83.82
495,83.95
496,83.97
497,84.03
498,84.05
499,84.24
500,84.25
501,84.26
502,84.44
503,84.46
504,84.51
505,84.46
506,84.57
507,84.69
508,84.68
509,84.73
510,85.02
511,85.02
512,85.02
513,85.08
514,85.15
515,85.33
516,85.4
517,85.44
518,85.33
519,85.4
520,85.67
521,85.68
522,85.81
523,85.76
524,85.83
525,85.95
526,85.96
527,85.96
528,86.03
529,86.23
530,86.28
531,86.17
532,86.29
533,86.37
534,86.37
535,86.49
536,86.47
537,86.42
538,86.65
539,86.7
540,86.81
541,86.75
542,86.71
543,86.83
544,86.9
545,87.03
546,86.98
547,87.06
548,87.13
549,87.2
550,87.27
551,87.39
552,87.4
553,87.59
554,87.67
555,87.67
556,87.65
557,87.53
558,87.67
559,87.7
560,87.74
561,88.33
562,88.21
563,88.28
564,88.46
565,88.4
566,88.45
567,88.39
568,88.44
569,88.61
570,88.49
571,88.5
572,88.39
573,88.49
574,88.56
575,88.52
576,88.55
577,88.47
578,88.46
579,88.66
580,88.61
581,88.66
582,88.6
583,88.55
584,88.73
585,88.73
586,88.79
587,88.78
588,88.66
589,88.96
590,88.84
591,88.96
592,88.96
593,88.89
594,88.95
595,89.02
596,89.14
597,89.09
598,89.04
599,89.3
600,89.21
601,89.31
602,89.39
603,89.35
604,89.47
605,89.42
606,89.49
607,89.61
608,89.49
609,89.5
610,89.45
611,89.51
612,89.56
613,89.5
614,89.68
615,89.56
616,89.57
617,89.5
618,89.45
619,89.56
620,89.55
621,89.56
622,89.63
623,89.56
624,89.68
625,89.74
626,89.62
627,89.69
628,89.68
629,89.68
630,89.84
631,89.72
632,89.73
633,89.73
634,89.73
635,89.91
636,89.8
637,89.84
638,89.8
639,89.8
640,89.85
641,89.85
642,89.96
643,89.95
644,89.9
645,90.08
646,90.03
647,90.04
648,90.2
649,90.03
650,90.08
651,90.09
652,90.15
653,90.2
654,90.2
655,90.3
656,90.19
657,90.29
658,90.3
659,90.26
660,90.2
661,90.2
662,90.26
663,90.47
664,90.48
665,90.43
666,90.48
667,90.31
668,90.35
669,90.35
670,90.47
671,90.53
672,90.48
673,90.48
674,90.47
675,90.59
676,90.71
677,90.66
678,90.66
679,90.71
680,90.76
681,90.82
682,90.76
683,90.82
684,90.77
685,90.78
686,90.89
687,90.89
688,91
689,90.83
690,90.89
691,91.06
692,91
693,91.05
694,91.05
695,91.05
696,91.12
697,91.11
698,91.22
699,91.2
700,91
701,91.01
702,91.17
703,91.24
704,91.13
705,91.3
706,91.29
707,91.24
708,91.24
709,91.3
710,91.42
711,91.35
712,91.29
713,91.4
714,91.46
715,91.35
716,91.47
717,91.36
718,91.53
719,91.47
720,91.42
721,91.53
722,91.47
723,91.52
724,91.47
725,91.53
726,91.65
727,91.48
728,91.59
729,91.59
730,91.53
731,91.53
732,91.41
733,91.58
734,91.52
735,91.53
736,91.47
737,91.35
738,91.47
739,91.58
740,91.47
741,91.47
742,91.47
743,91.53
744,91.59
745,91.59
746,91.59
747,91.65
748,91.59
749,91.65
750,91.59
751,91.59
752,91.58
753,91.52
754,91.59
755,91.53
756,91.7
757,91.7
758,91.53
759,91.71
760,91.64
761,91.76
762,91.76
763,91.76
764,91.77
765,91.65
766,91.76
767,91.65
768,91.53
769,91.59
770,91.53
771,91.76
772,91.82
773,91.65
774,91.65
775,91.53
776,91.7
777,91.65
778,91.59
779,91.64
780,91.59
781,91.71
782,91.77
783,91.54
784,91.59
785,91.6
786,91.71
787,91.71
788,91.59
789,91.64
790,91.59
791,91.6
792,91.6
793,91.59
794,91.65
795,91.59
796,91.59
797,91.58
798,91.52
799,91.51
800,91.62
804,91.62
808,91.62
812,91.57
816,91.56
820,91.44
824,91.45
828,91.39
832,91.38
836,91.32
840,91.33
844,91.32
848,91.32
852,91.32
856,91.26
860,91.31
864,91.38
868,91.37
872,91.37
876,91.25
880,91.25
884,91.25
888,91.25
892,91.19
896,91.2
900,91.13
904,91.13
908,91.08
912,91.01
916,91.01
920,90.89
924,90.9
928,90.9
932,90.83
936,90.71
940,90.59
944,90.35
948,90.06
952,89.94
956,89.7
960,89.65
964,89.7
968,89.95
972,90.13
976,90.35
980,90.41
984,90.6
988,90.65
992,90.84
996,90.92
1000,90.86
1004,91.06
1008,91.07
1012,91.14
1016,91.2
1020,91.19
1024,91.19
1028,91.3
1032,91.31
1036,91.43
1040,91.43
1044,91.43
1048,91.49
1052,91.37
1056,91.37
1060,91.43
1064,91.44
1068,91.51
1072,91.58
1076,91.53
1080,91.54
1084,91.5
1088,91.5
1092,91.51
1096,91.51
1100,91.5
1104,91.57
1108,91.57
1112,91.51
1116,91.5
1120,91.48
1124,91.42
1128,91.3
1132,91.05
1136,90.65
1140,90.17
1144,89.67
1148,89.24
1152,89.12
1156,89.27
1160,89.5
1164,89.74
1168,89.91
1172,90.09
1176,90.08
1180,90.12
1184,90.12
1188,90.05
1192,90.1
1196,90.28
1200,90.33
1204,90.39
1208,90.3
1212,90.4
1216,90.34
1220,90.42
1224,90.48
1228,90.54
1232,90.49
1236,90.44
1240,90.39
1244,90.34
1248,90.35
1252,90.41
1256,90.46
1260,90.52
1264,90.53
1268,90.47
1272,90.4
1276,90.33
1280,90.14
1284,89.96
1288,89.9
1292,89.62
1296,89.5
1300,89.26
1304,89.06
1308,88.71
1312,88.53
1316,88.35
1320,87.95
1324,87.61
1328,87.31
1332,87.03
1336,86.59
1340,86.31
1344,85.98
1348,85.66
1352,85.34
1356,84.99
1360,84.41
1364,83.76
1368,82.83
1372,81.78
1376,80.23
1380,78.22
1384,75.77
1388,73.08
1392,70.22
1396,67.76
1400,65.62
1404,63.76
1408,62.45
1412,62.3
1416,63.59
1420,65.61
1424,67.5
1428,68.98
1432,69.94
1436,70.77
1440,71.27
1444,71.77
1448,71.94
1452,71.94
1456,71.94
1460,72.04
1464,72.56
1468,73.24
1472,73.96
1476,74.69
1480,75.38
1484,76.04
1488,76.6
1492,77.04
1496,77.53
1500,77.92
1504,78.36
1508,78.71
1512,79.13
1516,79.49
1520,79.84
1524,80.06
1528,80.32
1532,80.63
1536,80.93
1540,81.22
1544,81.41
1548,81.58
1552,81.81
1556,82.01
1560,82.16
1564,82.37
1568,82.5
1572,82.64
1576,82.83
1580,82.89
1584,82.99
1588,83.12
1592,83.26
1596,83.38
1600,83.59
1604,83.59
1608,83.71
1612,83.76
1616,83.85
1620,83.93
1624,84
1628,84.14
1632,84.17
1636,84.19
1640,84.35
1644,84.38
1648,84.35
1652,84.48
1656,84.47
1660,84.45
1664,84.51
1668,84.39
1672,84.53
1676,84.52
1680,84.46
1684,84.47
1688,84.35
1692,84.22
1696,84.25
1700,84.1
1704,84.01
1708,83.88
1712,83.68
1716,83.53
1720,83.38
1724,83.34
1728,83.06
1732,82.83
1736,82.63
1740,82.37
1744,82.17
1748,81.86
1752,81.71
1756,81.45
1760,81.17
1764,80.95
1768,80.73
1772,80.5
1776,80.2
1780,80.1
1784,79.98
1788,79.85
1792,79.76
1796,79.65
1800,79.55
1804,79.54
1808,79.43
1812,79.38
1816,79.2
1820,79.09
1824,79
1828,78.79
1832,78.56
1836,78.12
1840,77.87
1844,77.44
1848,76.82
1852,76.1
1856,75.03
1860,73.86
1864,72
1868,69.51
1872,66.66
1876,63.48
1880,59.89
1884,55.98
1888,51.72
1892,47.55
1896,44.02
1900,41.56
1904,40.45
1908,40.55
1912,41.5
1916,42.98
1920,44.65
1924,46.22
1928,47.54
1932,48.58
1936,49.46
1940,50.23
1944,50.76
1948,51.25
1952,51.73
1956,52.2
1960,52.68
1964,53.14
1968,53.69
1972,54.23
1976,54.91
1980,55.62
1984,56.32
1988,57.09
1992,57.84
1996,58.62
2000,59.4
2004,60.09
2008,60.82
2012,61.54
2016,62.23
2020,62.9
2024,63.47
2028,64.03
2032,64.62
2036,65
2040,65.46
2044,65.81
2048,66.17
2052,66.48
2056,66.71
2060,67.03
2064,67.22
2068,67.35
2072,67.54
2076,67.66
2080,67.78
2084,67.88
2088,68.05
2092,68.16
2096,68.36
2100,68.55
2104,68.81
2108,69
2112,69.36
2116,69.48
2120,69.71
2124,69.82
2128,69.9
2132,69.9
2136,69.94
2140,69.91
2144,69.88
2148,69.69
2152,69.47
2156,69.28
2160,68.83
2164,68.33
2168,67.65
2172,66.8
2176,65.8
2180,64.5
2184,63.02
2188,61.31
2192,59.6
2196,58.11
2200,57
2204,56.41
2208,56.39
2212,57.08
2216,58.07
2220,59.29
2224,60.55
2228,61.69
2232,62.53
2236,63.22
2240,63.72
2244,64.18
2248,64.44
2252,64.64
2256,64.71
2260,64.71
2264,64.52
2268,64.36
2272,64.08
2276,63.77
2280,63.36
2284,62.92
2288,62.45
2292,61.98
2296,61.52
2300,61.06
2304,60.51
2308,60.09
2312,59.77
2316,59.36
2320,59.01
2324,58.45
2328,58.03
2332,57.47
2336,56.88
2340,56.32
2344,55.76
2348,55.16
2352,54.65
2356,54.1
2360,53.61
2364,53.01
2368,52.48
2372,52.01
2376,51.48
2380,51
2384,50.45
2388,49.95
2392,49.41
2396,48.98
2400,48.42
2404,47.96
2408,47.42
2412,46.95
2416,46.52
2420,46.04
2424,45.52
2428,45.01
2432,44.6
2436,44.07
2440,43.63
2444,43.15
2448,42.71
2452,42.29
2456,41.9
2460,41.4
2464,41.02
2468,40.69
2472,40.34
2476,39.99
2480,39.7
2484,39.33
2488,38.94
2492,38.69
2496,38.37
2500,38.07
