Wavelength (nm),Reflectance (%)
448,62.23
452,62.82
456,63.53
460,64.5
464,64.8
468,65.16
472,65.22
476,65.24
480,65.34
484,65.55
488,65.85
492,66.18
496,66.25
500,66.33
504,66.38
508,66.55
512,66.78
516,66.9
520,66.92
524,66.98
528,67.09
532,67.21
536,67.31
540,67.41
544,67.41
548,67.42
552,67.48
556,67.37
560,67.44
564,67.54
568,67.56
572,67.57
576,67.61
580,67.62
584,67.57
588,67.51
592,67.38
596,67.37
600,67.34
604,67.37
608,67.24
612,67
616,66.9
620,66.8
624,66.73
628,66.64
632,66.54
636,66.45
640,66.42
644,66.41
648,66.32
652,66.12
656,66.09
660,65.98
664,65.82
668,65.84
672,65.86
676,65.65
680,65.42
684,65.32
688,65.42
692,65.51
696,65.42
700,65.24
704,65.13
708,65.06
712,65.01
716,65.07
720,65.09
724,64.87
728,64.94
732,65.02
736,64.9
740,64.86
744,64.97
748,64.87
752,64.71
756,64.7
760,64.7
764,64.75
768,64.64
772,64.53
776,64.53
780,64.58
784,64.48
788,64.3
792,64.25
796,64.34
800,64.35
804,64.25
808,64.27
812,64.32
816,64.32
820,64.2
824,64.02
828,63.82
832,63.63
836,63.45
840,63.26
844,63.06
848,62.85
852,62.62
856,62.41
860,62.25
864,62.15
868,62.01
872,61.83
876,61.67
880,61.59
884,61.54
888,61.49
892,61.38
896,61.29
900,61.27
904,61.27
908,61.26
912,61.24
916,61.27
920,61.28
924,61.27
928,61.22
932,61.16
936,61.08
940,61.01
944,60.98
948,60.94
952,60.88
956,60.8
960,60.7
964,60.62
968,60.54
972,60.48
976,60.38
980,60.32
984,60.23
988,60.13
992,60.03
996,59.92
1000,59.82
1004,59.75
1008,59.67
1012,59.59
1016,59.53
1020,59.47
1024,59.43
1028,59.39
1032,59.3
1036,59.23
1040,59.18
1044,59.1
1048,59.05
1052,58.98
1056,58.91
1060,58.84
1064,58.78
1068,58.71
1072,58.66
1076,58.65
1080,58.65
1084,58.61
1088,58.59
1092,58.57
1096,58.56
1100,58.61
1104,58.67
1108,58.65
1112,58.59
1116,58.52
1120,58.48
1124,58.45
1128,58.46
1132,58.48
1136,58.43
1140,58.41
1144,58.42
1148,58.41
1152,58.4
1156,58.44
1160,58.48
1164,58.49
1168,58.49
1172,58.49
1176,58.5
1180,58.51
1184,58.54
1188,58.55
1192,58.57
1196,58.59
1200,58.59
1204,58.59
1208,58.61
1212,58.67
1216,58.71
1220,58.74
1224,58.76
1228,58.79
1232,58.87
1236,58.95
1240,58.98
1244,59.01
1248,59.06
1252,59.09
1256,59.1
1260,59.12
1264,59.16
1268,59.21
1272,59.24
1276,59.29
1280,59.35
1284,59.39
1288,59.41
1292,59.43
1296,59.46
1300,59.53
1304,59.63
1308,59.71
1312,59.81
1316,59.93
1320,60.02
1324,60.06
1328,60.08
1332,60.1
1336,60.13
1340,60.19
1344,60.25
1348,60.31
1352,60.36
1356,60.42
1360,60.48
1364,60.54
1368,60.6
1372,60.66
1376,60.7
1380,60.69
1384,60.67
1388,60.58
1392,60.5
1396,60.42
1400,60.32
1404,60.22
1408,60.2
1412,60.24
1416,60.38
1420,60.55
1424,60.72
1428,60.81
1432,60.85
1436,60.88
1440,60.91
1444,60.9
1448,60.92
1452,60.93
1456,60.93
1460,60.83
1464,60.6
1468,60.19
1472,59.68
1476,59.25
1480,59.2
1484,59.56
1488,60.09
1492,60.6
1496,60.93
1500,61.17
1504,61.37
1508,61.54
1512,61.67
1516,61.76
1520,61.86
1524,61.98
1528,62.02
1532,62.03
1536,62.02
1540,62.05
1544,62.14
1548,62.24
1552,62.33
1556,62.37
1560,62.35
1564,62.34
1568,62.31
1572,62.34
1576,62.4
1580,62.43
1584,62.43
1588,62.42
1592,62.43
1596,62.49
1600,62.55
1604,62.55
1608,62.5
1612,62.46
1616,62.48
1620,62.57
1624,62.62
1628,62.58
1632,62.49
1636,62.41
1640,62.39
1644,62.41
1648,62.44
1652,62.44
1656,62.44
1660,62.5
1664,62.69
1668,62.77
1672,62.83
1676,62.99
1680,62.75
1684,62.77
1688,62.99
1692,63.06
1696,62.85
1700,62.93
1704,62.98
1708,62.84
1712,62.81
1716,62.94
1720,62.89
1724,63.17
1728,63.2
1732,63.04
1736,63.32
1740,63.27
1744,63.16
1748,63.24
1752,63.35
1756,63.35
1760,63.41
1764,63.62
1768,63.89
1772,63.76
1776,63.63
1780,63.8
1784,63.71
1788,63.78
1792,63.82
1796,63.95
1800,63.76
1804,63.8
1808,64.01
1812,64.01
1816,63.74
1820,63.57
1824,63.77
1828,64.04
1832,63.92
1836,63.83
1840,64.04
1844,64.09
1848,63.88
1852,63.84
1856,64.06
1860,64.28
1864,63.98
1868,63.71
1872,63.6
1876,63.68
1880,63.88
1884,63.68
1888,63.39
1892,63.18
1896,62.96
1900,62.68
1904,62.42
1908,62.22
1912,62.26
1916,62.07
1920,62.27
1924,62.35
1928,62.08
1932,62.19
1936,62.44
1940,62.4
1944,62.39
1948,62.69
1952,62.7
1956,63.06
1960,63.06
1964,62.9
1968,63.26
1972,63.2
1976,63.18
1980,63.4
1984,63.7
1988,63.67
1992,63.52
1996,63.63
2000,63.86
2004,63.85
2008,63.86
2012,64.02
2016,64.29
2020,64.04
2024,64.16
2028,64.21
2032,64.03
2036,64.17
2040,64.37
2044,64.42
2048,64.55
2052,64.6
2056,64.7
2060,64.89
2064,64.89
2068,64.89
2072,64.91
2076,64.88
2080,64.9
2084,64.94
2088,64.92
2092,64.85
2096,64.85
2100,64.84
2104,64.72
2108,64.73
2112,64.71
2116,64.66
2120,64.73
2124,64.68
2128,64.66
2132,64.48
2136,64.37
2140,64.28
2144,64.14
2148,63.95
2152,63.93
2156,63.97
2160,63.82
2164,63.7
2168,63.56
2172,63.31
2176,62.95
2180,62.72
2184,62.36
2188,61.96
2192,61.63
2196,61.33
2200,60.95
2204,60.34
2208,59.78
2212,59.26
2216,58.66
2220,58.03
2224,57.38
2228,56.76
2232,56.64
2236,56.66
2240,56.75
2244,57.35
2248,57.56
2252,57.69
2256,57.8
2260,57.94
2264,57.53
2268,57.09
2272,56.54
2276,55.95
2280,55.54
2284,55.44
2288,55.26
2292,55.11
2296,55.14
2300,55.16
2304,55.02
2308,54.48
2312,53.43
2316,51.71
2320,49.43
2324,46.91
2328,44.67
2332,43.13
2336,42.33
2340,41.64
2344,41.04
2348,40.34
2352,39.87
2356,39.77
2360,40.2
2364,41.2
2368,42.33
2372,43.24
2376,43.69
2380,43.89
2384,44.1
2388,44.35
2392,44.89
2396,45.64
2400,46.38
2404,47.06
2408,47.72
2412,48.54
2416,49.22
2420,49.98
2424,50.64
2428,51.14
2432,51.53
2436,51.79
2440,52.06
2444,52.17
2448,52.05
2452,51.85
2456,51.51
2460,51.04
2464,50.61
2468,50.28
2472,50.01
2476,49.93
2480,49.98
2484,49.87
2488,49.74
2492,49.7
2496,49.73
2500,49.61
