Wavelength (nm),Reflectance (%)
448,45.78
452,45.95
456,46.13
460,46.36
464,46.59
468,46.67
472,46.78
476,46.98
480,47.37
484,47.75
488,48.08
492,48.4
496,48.71
500,48.97
504,49.14
508,49.3
512,49.5
516,49.59
520,49.78
524,49.95
528,50.11
532,50.18
536,50.33
540,50.5
544,50.64
548,50.88
552,51.16
556,51.33
560,51.62
564,51.85
568,52.2
572,52.54
576,52.83
580,53.04
584,53.15
588,53.28
592,53.44
596,53.61
600,53.73
604,53.76
608,53.87
612,54.04
616,54.21
620,54.32
624,54.51
628,54.55
632,54.57
636,54.7
640,54.8
644,54.76
648,54.84
652,54.96
656,55.02
660,55.05
664,55.08
668,55.14
672,55.27
676,55.38
680,55.43
684,55.49
688,55.59
692,55.67
696,55.77
700,55.9
704,56.03
708,56.04
712,56.03
716,56.11
720,56.13
724,56.3
728,56.31
732,56.28
736,56.29
740,56.36
744,56.37
748,56.33
752,56.32
756,56.44
760,56.45
764,56.42
768,56.46
772,56.5
776,56.52
780,56.45
784,56.43
788,56.43
792,56.31
796,56.17
800,56.17
804,56.1
808,56.03
812,55.98
816,55.86
820,55.75
824,55.68
828,55.59
832,55.51
836,55.44
840,55.26
844,55.12
848,54.97
852,54.86
856,54.68
860,54.68
864,54.68
868,54.68
872,54.64
876,54.51
880,54.44
884,54.39
888,54.33
892,54.35
896,54.29
900,54.22
904,54.15
908,54.06
912,54.03
916,54.01
920,53.94
924,53.92
928,53.9
932,53.89
936,53.88
940,53.79
944,53.73
948,53.7
952,53.66
956,53.56
960,53.45
964,53.36
968,53.4
972,53.49
976,53.53
980,53.49
984,53.46
988,53.42
992,53.39
996,53.29
1000,53.17
1004,53.01
1008,52.82
1012,52.66
1016,52.63
1020,52.75
1024,52.94
1028,53.12
1032,53.27
1036,53.34
1040,53.35
1044,53.39
1048,53.43
1052,53.47
1056,53.53
1060,53.55
1064,53.57
1068,53.59
1072,53.58
1076,53.57
1080,53.57
1084,53.62
1088,53.64
1092,53.68
1096,53.76
1100,53.81
1104,53.89
1108,53.96
1112,54.04
1116,54.11
1120,54.19
1124,54.26
1128,54.35
1132,54.45
1136,54.56
1140,54.68
1144,54.74
1148,54.8
1152,54.86
1156,54.91
1160,55.03
1164,55.16
1168,55.27
1172,55.38
1176,55.47
1180,55.61
1184,55.69
1188,55.78
1192,55.88
1196,56.04
1200,56.19
1204,56.32
1208,56.43
1212,56.61
1216,56.81
1220,57
1224,57.16
1228,57.27
1232,57.37
1236,57.42
1240,57.49
1244,57.59
1248,57.69
1252,57.81
1256,57.83
1260,57.85
1264,57.78
1268,57.68
1272,57.45
1276,56.99
1280,56.26
1284,55.46
1288,55.08
1292,55.18
1296,55.41
1300,55.58
1304,55.79
1308,56.17
1312,56.7
1316,57.13
1320,57.3
1324,57.38
1328,57.42
1332,57.48
1336,57.63
1340,57.84
1344,58.02
1348,58.1
1352,58.06
1356,57.97
1360,57.86
1364,57.7
1368,57.46
1372,57.17
1376,56.75
1380,56.14
1384,55.27
1388,53.97
1392,52.1
1396,49.79
1400,47.56
1404,45.73
1408,44.45
1412,43.79
1416,44.1
1420,45.1
1424,46.06
1428,46.29
1432,45.94
1436,45.7
1440,45.81
1444,45.84
1448,45.35
1452,44.34
1456,43.07
1460,41.38
1464,38.72
1468,34.51
1472,29.63
1476,26.15
1480,26.06
1484,29.26
1488,34.38
1492,39.42
1496,43.12
1500,45.57
1504,47.16
1508,48.41
1512,49.44
1516,50.29
1520,50.94
1524,51.43
1528,51.72
1532,51.84
1536,51.79
1540,51.7
1544,51.57
1548,51.45
1552,51.34
1556,51.23
1560,51.19
1564,51.24
1568,51.31
1572,51.39
1576,51.55
1580,51.77
1584,52.07
1588,52.36
1592,52.56
1596,52.69
1600,52.8
1604,52.92
1608,53.01
1612,53.01
1616,52.97
1620,52.97
1624,53.02
1628,53.07
1632,53.12
1636,53.16
1640,53.16
1644,53.15
1648,53.24
1652,53.27
1656,53.2
1660,53.11
1664,53.09
1668,53.16
1672,53.25
1676,53.32
1680,53.3
1684,53.24
1688,53.07
1692,52.93
1696,52.72
1700,52.52
1704,52.35
1708,52.2
1712,52.13
1716,52.02
1720,51.85
1724,51.6
1728,51.33
1732,51.1
1736,50.91
1740,50.8
1744,50.77
1748,50.81
1752,50.89
1756,50.99
1760,51.1
1764,51.23
1768,51.36
1772,51.53
1776,51.69
1780,51.79
1784,51.77
1788,51.72
1792,51.62
1796,51.45
1800,51.13
1804,50.72
1808,50.17
1812,49.54
1816,48.79
1820,47.86
1824,46.93
1828,46.15
1832,45.68
1836,45.46
1840,45.39
1844,45.35
1848,45.26
1852,45.03
1856,44.57
1860,43.79
1864,42.62
1868,41.15
1872,39.6
1876,38.23
1880,37.38
1884,36.74
1888,35.99
1892,34.75
1896,33.35
1900,32.04
1904,31.15
1908,30.73
1912,30.61
1916,30.62
1920,30.64
1924,30.68
1928,30.75
1932,30.82
1936,30.92
1940,31.06
1944,31.27
1948,31.5
1952,31.72
1956,31.95
1960,32.2
1964,32.49
1968,32.8
1972,33.11
1976,33.34
1980,33.51
1984,33.65
1988,33.78
1992,33.94
1996,34.16
2000,34.55
2004,34.93
2008,35.27
2012,35.53
2016,35.79
2020,36.09
2024,36.42
2028,36.81
2032,37.2
2036,37.55
2040,37.87
2044,38.15
2048,38.37
2052,38.48
2056,38.57
2060,38.66
2064,38.76
2068,38.79
2072,38.73
2076,38.65
2080,38.5
2084,38.35
2088,38.13
2092,37.74
2096,37.29
2100,36.89
2104,36.58
2108,36.32
2112,36.04
2116,35.75
2120,35.48
2124,35.26
2128,35.1
2132,34.88
2136,34.61
2140,34.24
2144,33.81
2148,33.36
2152,32.91
2156,32.47
2160,32.01
2164,31.45
2168,30.83
2172,30.16
2176,29.44
2180,28.66
2184,27.83
2188,26.92
2192,25.94
2196,24.9
2200,23.74
2204,22.4
2208,20.9
2212,19.5
2216,18.28
2220,17.26
2224,16.31
2228,15.6
2232,15.36
2236,15.63
2240,16.23
2244,16.94
2248,17.55
2252,17.92
2256,18.02
2260,17.95
2264,17.6
2268,16.94
2272,16.1
2276,15.33
2280,14.82
2284,14.51
2288,14.48
2292,14.62
2296,15.02
2300,15.61
2304,16.02
2308,15.77
2312,14.63
2316,13
2320,11.32
2324,10.01
2328,9.23
2332,8.83
2336,8.62
2340,8.48
2344,8.35
2348,8.19
2352,8.05
2356,7.99
2360,8.02
2364,8.18
2368,8.46
2372,8.72
2376,8.92
2380,9.04
2384,9.09
2388,9.18
2392,9.37
2396,9.69
2400,10.01
2404,10.32
2408,10.59
2412,10.89
2416,11.29
2420,11.73
2424,12.15
2428,12.6
2432,12.95
2436,13.22
2440,13.37
2444,13.37
2448,13.16
2452,12.84
2456,12.48
2460,12.29
2464,12.09
2468,11.85
2472,11.68
2476,11.76
2480,12.05
2484,12.35
2488,12.57
2492,12.76
2496,12.94
2500,13.06
