Wavelength (nm),Reflectance (%)
448,54
452,54.21
456,54.55
460,54.93
464,55.32
468,55.56
472,55.76
476,56.01
480,56.32
484,56.71
488,57.05
492,57.44
496,57.75
500,57.91
504,58.1
508,58.32
512,58.5
516,58.57
520,58.62
524,58.68
528,58.74
532,58.67
536,58.69
540,58.61
544,58.49
548,58.47
552,58.48
556,58.38
560,58.28
564,58.23
568,58.12
572,58
576,57.94
580,57.78
584,57.53
588,57.45
592,57.3
596,57.15
600,56.96
604,56.85
608,56.72
612,56.59
616,56.46
620,56.38
624,56.2
628,55.95
632,55.81
636,55.76
640,55.66
644,55.51
648,55.46
652,55.34
656,55.2
660,55.07
664,55.06
668,54.93
672,54.81
676,54.79
680,54.77
684,54.58
688,54.52
692,54.31
696,54.25
700,54.23
704,54.14
708,54.12
712,54.13
716,54.03
720,53.9
724,53.87
728,53.87
732,53.81
736,53.77
740,53.83
744,53.73
748,53.66
752,53.65
756,53.63
760,53.54
764,53.65
768,53.64
772,53.55
776,53.43
780,53.46
784,53.44
788,53.36
792,53.22
796,53.17
800,52.9
804,52.83
808,52.77
812,52.63
816,52.4
820,52.2
824,52.2
828,52.04
832,51.85
836,51.62
840,51.42
844,51.2
848,51.03
852,50.86
856,50.68
860,50.51
864,50.35
868,50.25
872,50.16
876,50.08
880,49.96
884,49.83
888,49.75
892,49.68
896,49.65
900,49.64
904,49.59
908,49.56
912,49.55
916,49.54
920,49.53
924,49.52
928,49.49
932,49.47
936,49.45
940,49.35
944,49.07
948,48.76
952,48.74
956,48.98
960,49.16
964,49.15
968,49.12
972,49.1
976,49.04
980,48.99
984,48.93
988,48.88
992,48.82
996,48.74
1000,48.66
1004,48.63
1008,48.62
1012,48.59
1016,48.58
1020,48.53
1024,48.47
1028,48.39
1032,48.36
1036,48.32
1040,48.3
1044,48.27
1048,48.25
1052,48.26
1056,48.21
1060,48.17
1064,48.12
1068,48.09
1072,48.11
1076,48.14
1080,48.16
1084,48.22
1088,48.26
1092,48.27
1096,48.3
1100,48.31
1104,48.33
1108,48.3
1112,48.33
1116,48.38
1120,48.45
1124,48.5
1128,48.54
1132,48.58
1136,48.7
1140,48.8
1144,48.83
1148,48.82
1152,48.84
1156,48.88
1160,48.95
1164,49.02
1168,49.06
1172,49.15
1176,49.23
1180,49.26
1184,49.3
1188,49.31
1192,49.39
1196,49.51
1200,49.58
1204,49.67
1208,49.73
1212,49.8
1216,49.85
1220,49.9
1224,49.93
1228,49.97
1232,50.02
1236,50.07
1240,50.09
1244,50.12
1248,50.14
1252,50.21
1256,50.31
1260,50.33
1264,50.32
1268,50.24
1272,50.11
1276,50.05
1280,50.22
1284,50.47
1288,50.63
1292,50.61
1296,50.6
1300,50.68
1304,50.79
1308,50.84
1312,50.82
1316,50.86
1320,50.93
1324,51.02
1328,51.11
1332,51.19
1336,51.21
1340,51.21
1344,51.24
1348,51.29
1352,51.37
1356,51.44
1360,51.5
1364,51.5
1368,51.44
1372,51.35
1376,51.22
1380,50.55
1384,48.52
1388,44.74
1392,41.55
1396,41.89
1400,45.31
1404,48.57
1408,49.93
1412,50.33
1416,50.48
1420,50.56
1424,50.68
1428,50.83
1432,50.97
1436,51.08
1440,51.2
1444,51.31
1448,51.4
1452,51.5
1456,51.6
1460,51.66
1464,51.72
1468,51.8
1472,51.89
1476,51.98
1480,52.09
1484,52.24
1488,52.34
1492,52.43
1496,52.52
1500,52.57
1504,52.64
1508,52.73
1512,52.84
1516,52.98
1520,53.1
1524,53.21
1528,53.27
1532,53.3
1536,53.36
1540,53.48
1544,53.63
1548,53.77
1552,53.92
1556,54
1560,54.08
1564,54.13
1568,54.19
1572,54.25
1576,54.28
1580,54.35
1584,54.45
1588,54.5
1592,54.51
1596,54.53
1600,54.59
1604,54.62
1608,54.69
1612,54.72
1616,54.69
1620,54.67
1624,54.69
1628,54.64
1632,54.6
1636,54.6
1640,54.68
1644,54.77
1648,54.8
1652,54.84
1656,54.89
1660,54.96
1664,55.04
1668,55.1
1672,55.22
1676,55.28
1680,55.2
1684,55.13
1688,55.1
1692,55.08
1696,55.11
1700,55.11
1704,55.18
1708,55.23
1712,55.27
1716,55.23
1720,55.23
1724,55.21
1728,55.31
1732,55.36
1736,55.42
1740,55.45
1744,55.39
1748,55.33
1752,55.34
1756,55.34
1760,55.24
1764,55.13
1768,55.06
1772,55.02
1776,54.97
1780,54.84
1784,54.82
1788,54.81
1792,54.77
1796,54.71
1800,54.65
1804,54.57
1808,54.4
1812,54.21
1816,54.08
1820,53.93
1824,53.81
1828,53.7
1832,53.61
1836,53.63
1840,53.69
1844,53.68
1848,53.56
1852,53.41
1856,53.24
1860,52.98
1864,52.6
1868,52.11
1872,51.52
1876,50.86
1880,50.07
1884,49.01
1888,47.67
1892,46.2
1896,44.83
1900,43.81
1904,43.23
1908,43.04
1912,43.14
1916,43.38
1920,43.67
1924,43.92
1928,44.14
1932,44.29
1936,44.37
1940,44.49
1944,44.59
1948,44.65
1952,44.72
1956,44.8
1960,44.88
1964,44.99
1968,45.14
1972,45.29
1976,45.43
1980,45.51
1984,45.47
1988,45.45
1992,45.41
1996,45.42
2000,45.46
2004,45.46
2008,45.45
2012,45.54
2016,45.89
2020,46.34
2024,46.75
2028,46.98
2032,47.12
2036,47.14
2040,47.12
2044,47.09
2048,47.03
2052,46.93
2056,46.77
2060,46.5
2064,45.82
2068,44.64
2072,43.44
2076,42.85
2080,43.11
2084,43.62
2088,44.08
2092,44.47
2096,44.77
2100,44.99
2104,45.03
2108,44.75
2112,44.34
2116,43.92
2120,43.43
2124,42.89
2128,42.48
2132,42.48
2136,42.74
2140,43.09
2144,43.59
2148,44.12
2152,44.48
2156,44.52
2160,44.32
2164,43.9
2168,43.46
2172,43.22
2176,43.43
2180,44.01
2184,44.63
2188,45.05
2192,45.25
2196,45.32
2200,45.28
2204,45.2
2208,45.04
2212,44.72
2216,44.01
2220,42.63
2224,40.84
2228,39.5
2232,39.54
2236,40.45
2240,41.21
2244,41.3
2248,40.67
2252,39.58
2256,38.15
2260,36.52
2264,34.69
2268,32.66
2272,30.41
2276,27.86
2280,24.96
2284,22.18
2288,20.57
2292,20.49
2296,20.78
2300,20.24
2304,18.59
2308,17.09
2312,16.85
2316,18.04
2320,20.11
2324,22.72
2328,25.86
2332,28.95
2336,31.17
2340,32.17
2344,32.21
2348,31.59
2352,30.82
2356,30.31
2360,29.87
2364,29.07
2368,27.63
2372,25.97
2376,24.57
2380,23.57
2384,22.95
2388,22.81
2392,23.32
2396,24.86
2400,27.17
2404,29.42
2408,30.73
2412,31.03
2416,30.59
2420,29.72
2424,28.87
2428,28.51
2432,28.4
2436,28.42
2440,28.39
2444,28.36
2448,28.28
2452,28.15
2456,27.88
2460,27.57
2464,27.55
2468,28.18
2472,29.44
2476,30.87
2480,32
2484,32.73
2488,33.19
2492,33.53
2496,33.93
2500,34.65
