Wavelength (nm),Reflectance (%)
448,20.45
452,20.62
456,20.82
460,20.86
464,20.85
468,20.92
472,21
476,21.17
480,21.27
484,21.37
488,21.48
492,21.62
496,21.73
500,21.74
504,21.79
508,21.95
512,22.14
516,22.27
520,22.35
524,22.48
528,22.68
532,22.83
536,23.09
540,23.38
544,23.72
548,24.08
552,24.48
556,24.97
560,25.42
564,25.94
568,26.48
572,27.03
576,27.6
580,28.11
584,28.65
588,29.16
592,29.64
596,30.05
600,30.42
604,30.72
608,31.04
612,31.26
616,31.44
620,31.63
624,31.79
628,31.91
632,31.99
636,32.14
640,32.3
644,32.41
648,32.6
652,32.77
656,32.88
660,33.08
664,33.2
668,33.33
672,33.52
676,33.68
680,33.81
684,33.99
688,34.12
692,34.31
696,34.46
700,34.59
704,34.74
708,34.89
712,35.12
716,35.32
720,35.42
724,35.54
728,35.56
732,35.61
736,35.65
740,35.71
744,35.68
748,35.62
752,35.56
756,35.39
760,35.29
764,35.23
768,35.12
772,34.93
776,34.75
780,34.6
784,34.49
788,34.35
792,34.2
796,34.06
800,33.89
804,33.73
808,33.56
812,33.41
816,33.26
820,33.1
824,32.95
828,32.95
832,32.83
836,32.72
840,32.55
844,32.41
848,32.28
852,32.13
856,32
860,31.9
864,31.77
868,31.75
872,31.76
876,31.76
880,31.73
884,31.69
888,31.64
892,31.62
896,31.65
900,31.67
904,31.69
908,31.76
912,31.8
916,31.85
920,31.89
924,32
928,32.12
932,32.28
936,32.42
940,32.57
944,32.69
948,32.89
952,33.05
956,33.2
960,33.3
964,33.51
968,33.73
972,33.9
976,34.2
980,34.46
984,34.7
988,34.95
992,35.14
996,35.31
1000,35.58
1004,35.79
1008,35.95
1012,36.13
1016,36.28
1020,36.46
1024,36.64
1028,36.84
1032,36.98
1036,37.26
1040,37.5
1044,37.66
1048,37.75
1052,37.96
1056,38.12
1060,38.32
1064,38.41
1068,38.63
1072,38.73
1076,38.97
1080,39.15
1084,39.35
1088,39.56
1092,39.77
1096,39.88
1100,40.12
1104,40.37
1108,40.53
1112,40.8
1116,40.98
1120,41.23
1124,41.46
1128,41.73
1132,41.95
1136,42.21
1140,42.42
1144,42.74
1148,42.96
1152,43.17
1156,43.42
1160,43.63
1164,43.92
1168,44.15
1172,44.42
1176,44.68
1180,44.92
1184,45.12
1188,45.43
1192,45.66
1196,45.87
1200,46.08
1204,46.29
1208,46.53
1212,46.71
1216,46.91
1220,47.11
1224,47.29
1228,47.46
1232,47.63
1236,47.84
1240,48.02
1244,48.14
1248,48.28
1252,48.45
1256,48.6
1260,48.75
1264,48.93
1268,49.09
1272,49.19
1276,49.25
1280,49.3
1284,49.35
1288,49.37
1292,49.41
1296,49.49
1300,49.61
1304,49.69
1308,49.76
1312,49.82
1316,49.9
1320,50
1324,50.15
1328,50.28
1332,50.42
1336,50.57
1340,50.63
1344,50.72
1348,50.81
1352,50.88
1356,50.85
1360,50.83
1364,50.69
1368,50.58
1372,50.42
1376,50.18
1380,49.88
1384,49.32
1388,48.07
1392,45.75
1396,42.49
1400,39.06
1404,36.15
1408,34.26
1412,33.86
1416,35.18
1420,37.94
1424,41.17
1428,44.2
1432,46.55
1436,48.11
1440,49.05
1444,49.59
1448,49.95
1452,50.17
1456,50.39
1460,50.45
1464,50.49
1468,50.58
1472,50.69
1476,50.84
1480,50.94
1484,51.08
1488,51.1
1492,51.15
1496,51.24
1500,51.24
1504,51.32
1508,51.39
1512,51.36
1516,51.36
1520,51.36
1524,51.34
1528,51.42
1532,51.5
1536,51.56
1540,51.47
1544,51.41
1548,51.43
1552,51.27
1556,51.21
1560,51.18
1564,51.11
1568,51.1
1572,51.02
1576,50.9
1580,50.83
1584,50.7
1588,50.59
1592,50.58
1596,50.52
1600,50.49
1604,50.4
1608,50.32
1612,50.22
1616,50.05
1620,49.85
1624,49.7
1628,49.7
1632,49.62
1636,49.62
1640,49.61
1644,49.58
1648,49.59
1652,49.59
1656,49.57
1660,49.5
1664,49.45
1668,49.42
1672,49.5
1676,49.52
1680,49.49
1684,49.44
1688,49.38
1692,49.35
1696,49.29
1700,49.23
1704,49.23
1708,49.18
1712,49.27
1716,49.29
1720,49.23
1724,49.15
1728,49.02
1732,48.9
1736,48.85
1740,48.85
1744,48.82
1748,48.89
1752,48.92
1756,48.95
1760,48.89
1764,48.83
1768,48.75
1772,48.59
1776,48.51
1780,48.54
1784,48.51
1788,48.52
1792,48.5
1796,48.52
1800,48.55
1804,48.47
1808,48.38
1812,48.26
1816,48.21
1820,48.16
1824,48.11
1828,48
1832,47.85
1836,47.7
1840,47.55
1844,47.43
1848,47.37
1852,47.28
1856,47.2
1860,47.13
1864,47
1868,46.77
1872,46.53
1876,46.17
1880,45.67
1884,45.07
1888,44.38
1892,43.6
1896,42.73
1900,41.91
1904,41.3
1908,40.94
1912,40.81
1916,40.84
1920,40.9
1924,40.96
1928,41.02
1932,41.08
1936,41.14
1940,41.22
1944,41.34
1948,41.46
1952,41.56
1956,41.6
1960,41.7
1964,41.79
1968,41.88
1972,42
1976,42.15
1980,42.22
1984,42.33
1988,42.42
1992,42.52
1996,42.69
2000,42.81
2004,42.92
2008,43.09
2012,43.21
2016,43.3
2020,43.4
2024,43.5
2028,43.55
2032,43.67
2036,43.72
2040,43.79
2044,43.81
2048,43.85
2052,43.83
2056,43.8
2060,43.84
2064,43.84
2068,43.78
2072,43.71
2076,43.53
2080,43.35
2084,43.13
2088,42.8
2092,42.38
2096,41.96
2100,41.57
2104,41.23
2108,40.91
2112,40.6
2116,40.38
2120,40.24
2124,40.18
2128,40.22
2132,40.28
2136,40.29
2140,40.23
2144,39.97
2148,39.59
2152,39.09
2156,38.45
2160,37.73
2164,36.89
2168,35.84
2172,34.5
2176,32.86
2180,30.96
2184,28.92
2188,26.91
2192,25.13
2196,23.77
2200,22.86
2204,22.4
2208,22.36
2212,22.72
2216,23.51
2220,24.69
2224,26.1
2228,27.55
2232,28.84
2236,29.87
2240,30.66
2244,31.31
2248,31.93
2252,32.57
2256,33.2
2260,33.78
2264,34.25
2268,34.6
2272,34.8
2276,34.84
2280,34.75
2284,34.57
2288,34.27
2292,33.83
2296,33.21
2300,32.43
2304,31.53
2308,30.57
2312,29.63
2316,28.73
2320,27.86
2324,26.99
2328,26.12
2332,25.29
2336,24.58
2340,24.06
2344,23.73
2348,23.64
2352,23.74
2356,23.97
2360,24.32
2364,24.67
2368,24.95
2372,25.2
2376,25.39
2380,25.49
2384,25.58
2388,25.65
2392,25.62
2396,25.54
2400,25.4
2404,25.2
2408,24.94
2412,24.64
2416,24.31
2420,23.99
2424,23.7
2428,23.48
2432,23.28
2436,23.14
2440,23.07
2444,23.12
2448,23.26
2452,23.5
2456,23.87
2460,24.29
2464,24.71
2468,25.12
2472,25.48
2476,25.8
2480,26.12
2484,26.48
2488,26.77
2492,27.05
2496,27.4
2500,27.77
