Wavelength (nm),Reflectance (%)
448,85.56
452,86.13
456,86.78
460,87.36
464,87.8
468,88.04
472,88.42
476,88.72
480,88.71
484,88.63
488,88.78
492,89.18
496,89.38
500,89.44
504,89.56
508,89.65
512,89.87
516,90.18
520,90.46
524,90.62
528,90.75
532,90.99
536,91.53
540,91.85
544,91.98
548,92.35
552,93.07
556,93.42
560,93.61
564,93.98
568,94.29
572,94.62
576,94.79
580,94.85
584,94.92
588,95.04
592,95.22
596,95
600,95.25
604,95.28
608,94.89
612,94.83
616,94.81
620,94.82
624,94.76
628,94.6
632,94.43
636,94.25
640,94.15
644,94.25
648,94.34
652,94.1
656,93.84
660,93.82
664,93.68
668,93.64
672,93.62
676,93.37
680,93.24
684,93.09
688,92.89
692,92.83
696,93.02
700,93.11
704,92.72
708,92.32
712,92.38
716,92.46
720,92.34
724,92.25
728,92.26
732,92.37
736,92.4
740,92.15
744,91.88
748,91.83
752,91.91
756,91.97
760,92.04
764,92
768,91.73
772,91.6
776,91.71
780,91.63
784,91.41
788,91.15
792,90.9
796,90.87
800,91.03
804,91.04
808,90.74
812,90.58
816,90.58
820,90.5
824,90.47
828,90.51
832,90.65
836,90.43
840,90.29
844,90.21
848,90.22
852,89.82
856,89.66
860,89.54
864,89.28
868,89.28
872,89.47
876,89.07
880,89.05
884,89.09
888,89.21
892,89.07
896,88.88
900,88.77
904,89.04
908,88.95
912,88.72
916,88.79
920,89.03
924,88.63
928,88.83
932,88.72
936,88.36
940,88.52
944,88.59
948,88.19
952,88.24
956,88.27
960,87.93
964,87.87
968,87.63
972,87.64
976,87.64
980,87.61
984,87.8
988,87.48
992,87.38
996,87.35
1000,87.35
1004,87.32
1008,87.24
1012,87.43
1016,87.21
1020,86.97
1024,87.14
1028,86.88
1032,86.75
1036,86.96
1040,86.86
1044,86.56
1048,86.48
1052,86.58
1056,86.49
1060,86.27
1064,86.21
1068,86.31
1072,86.24
1076,86.21
1080,86.36
1084,86.01
1088,85.9
1092,86.06
1096,86.25
1100,85.98
1104,85.8
1108,86
1112,86.14
1116,85.89
1120,85.89
1124,86.16
1128,85.95
1132,85.78
1136,85.78
1140,85.87
1144,85.82
1148,85.66
1152,85.59
1156,85.47
1160,85.53
1164,85.78
1168,85.62
1172,85.41
1176,85.5
1180,85.64
1184,85.83
1188,85.65
1192,85.58
1196,85.86
1200,85.72
1204,85.69
1208,85.89
1212,85.98
1216,85.77
1220,85.88
1224,85.84
1228,85.93
1232,85.88
1236,85.99
1240,86.04
1244,86.16
1248,86.04
1252,86.17
1256,86.21
1260,86.44
1264,86.26
1268,86.11
1272,86.31
1276,86.31
1280,86.27
1284,86.37
1288,86.32
1292,86.49
1296,86.37
1300,86.36
1304,86.46
1308,86.26
1312,86.28
1316,86.45
1320,86.51
1324,86.36
1328,86.59
1332,86.62
1336,86.4
1340,86.42
1344,86.52
1348,86.71
1352,86.68
1356,86.73
1360,86.78
1364,86.76
1368,86.79
1372,86.86
1376,86.94
1380,86.61
1384,86.41
1388,86.09
1392,85.44
1396,84.57
1400,83.68
1404,82.96
1408,82.72
1412,82.74
1416,83.06
1420,83.93
1424,84.82
1428,85.42
1432,85.7
1436,85.96
1440,86.28
1444,86.26
1448,86.41
1452,86.37
1456,86.36
1460,86.41
1464,86.47
1468,86.44
1472,86.53
1476,86.46
1480,86.44
1484,86.59
1488,86.63
1492,86.79
1496,86.94
1500,87.11
1504,87.1
1508,87.2
1512,87.31
1516,87.5
1520,87.38
1524,87.31
1528,87.39
1532,87.45
1536,87.5
1540,87.69
1544,87.71
1548,87.75
1552,87.84
1556,88.06
1560,88.15
1564,88.01
1568,88
1572,88
1576,88.08
1580,87.93
1584,88.17
1588,88.12
1592,88.04
1596,88.26
1600,88.26
1604,88.53
1608,88.38
1612,88.21
1616,88.35
1620,88.32
1624,88.22
1628,88.23
1632,88.26
1636,88.61
1640,88.57
1644,88.52
1648,88.5
1652,88.52
1656,88.52
1660,88.28
1664,88.2
1668,88.24
1672,88.27
1676,88.37
1680,88.47
1684,88.51
1688,88.45
1692,88.4
1696,88.47
1700,88.44
1704,88.46
1708,88.62
1712,88.7
1716,88.76
1720,88.8
1724,88.69
1728,88.62
1732,88.65
1736,88.64
1740,88.52
1744,88.53
1748,88.52
1752,88.5
1756,88.66
1760,88.64
1764,88.49
1768,88.45
1772,88.59
1776,88.69
1780,88.79
1784,88.8
1788,88.81
1792,88.81
1796,88.83
1800,88.93
1804,89.02
1808,88.96
1812,88.89
1816,88.9
1820,88.81
1824,88.86
1828,88.89
1832,88.98
1836,88.87
1840,88.8
1844,88.91
1848,89
1852,89
1856,88.99
1860,88.98
1864,88.83
1868,88.67
1872,88.36
1876,87.91
1880,87.39
1884,86.83
1888,86.23
1892,85.46
1896,84.56
1900,83.65
1904,82.84
1908,82.17
1912,81.72
1916,81.48
1920,81.5
1924,81.66
1928,81.81
1932,81.99
1936,82.15
1940,82.4
1944,82.62
1948,82.77
1952,82.95
1956,83.17
1960,83.45
1964,83.7
1968,83.87
1972,84.04
1976,84.3
1980,84.5
1984,84.78
1988,85.04
1992,85.23
1996,85.36
2000,85.63
2004,85.79
2008,85.92
2012,86.16
2016,86.28
2020,86.42
2024,86.52
2028,86.72
2032,86.78
2036,86.78
2040,86.81
2044,87
2048,87.2
2052,87.31
2056,87.39
2060,87.42
2064,87.59
2068,87.61
2072,87.59
2076,87.47
2080,87.4
2084,87.49
2088,87.48
2092,87.5
2096,87.38
2100,87.36
2104,87.28
2108,87.16
2112,87.1
2116,87.04
2120,87.02
2124,86.98
2128,86.95
2132,86.92
2136,86.87
2140,86.71
2144,86.53
2148,86.2
2152,85.7
2156,85.08
2160,84.41
2164,83.58
2168,82.57
2172,81.37
2176,80.02
2180,78.57
2184,77.11
2188,75.86
2192,74.99
2196,74.68
2200,74.83
2204,75.44
2208,76.34
2212,77.3
2216,78.23
2220,79.04
2224,79.61
2228,79.88
2232,80.01
2236,80.06
2240,79.99
2244,79.89
2248,79.74
2252,79.72
2256,79.81
2260,79.97
2264,80.09
2268,80.05
2272,79.89
2276,79.77
2280,79.47
2284,79.07
2288,78.61
2292,78.14
2296,77.6
2300,77.08
2304,76.44
2308,75.76
2312,75.03
2316,74.22
2320,73.35
2324,72.38
2328,71.4
2332,70.52
2336,69.87
2340,69.45
2344,69.17
2348,69.14
2352,69.32
2356,69.74
2360,70.21
2364,70.6
2368,70.97
2372,71.16
2376,71.31
2380,71.3
2384,71.35
2388,71.36
2392,71.28
2396,71.21
2400,71.01
2404,70.75
2408,70.47
2412,70.17
2416,69.96
2420,69.69
2424,69.29
2428,68.9
2432,68.57
2436,68.34
2440,68.15
2444,68.06
2448,68.08
2452,68.19
2456,68.21
2460,68.14
2464,68
2468,67.91
2472,67.85
2476,68.02
2480,68.12
2484,68.01
2488,67.87
2492,67.75
2496,67.86
2500,67.95
