Wavelength (nm),Reflectance (%)
448,21.89
452,23.26
456,24.43
460,25.07
464,25.43
468,26.16
472,27.34
476,28.25
480,28.95
484,29.8
488,30.73
492,31.64
496,32.47
500,33.18
504,33.95
508,34.73
512,35.93
516,36.6
520,37.07
524,37.89
528,38.62
532,39.57
536,40.53
540,41.75
544,42.74
548,43.53
552,44.48
556,45.63
560,46.69
564,47.84
568,48.67
572,49.3
576,49.78
580,50.62
584,51.36
588,51.84
592,52.52
596,53.14
600,53.56
604,53.83
608,54.19
612,54.58
616,54.77
620,54.83
624,54.97
628,55.27
632,55.52
636,55.59
640,55.83
644,56.17
648,56.47
652,56.56
656,56.39
660,56.33
664,56.64
668,56.71
672,57.17
676,57.25
680,57.56
684,57.75
688,57.89
692,58.01
696,58.17
700,58.45
704,58.68
708,58.71
712,58.77
716,59.16
720,59.63
724,59.86
728,60.14
732,60.13
736,60.22
740,60.61
744,60.75
748,60.78
752,60.87
756,61.18
760,61.4
764,61.57
768,61.83
772,62.13
776,62.51
780,62.78
784,62.89
788,63.25
792,63.62
796,63.94
800,64.14
804,64.24
808,64.32
812,64.36
816,64.42
820,64.43
824,64.26
828,64.26
832,64.22
836,64.19
840,64.01
844,63.68
848,63.68
852,63.87
856,64
860,63.88
864,63.58
868,63.32
872,63.08
876,62.89
880,62.82
884,62.69
888,62.46
892,62.3
896,62.24
900,62.28
904,62.33
908,62.34
912,62.32
916,62.34
920,62.56
924,62.77
928,63.03
932,63.32
936,63.55
940,63.81
944,64.01
948,64.11
952,64.03
956,63.95
960,64.04
964,64.24
968,64.62
972,65.17
976,65.74
980,66.11
984,66.45
988,66.74
992,67.05
996,67.35
1000,67.71
1004,68.12
1008,68.5
1012,68.85
1016,69.14
1020,69.4
1024,69.57
1028,69.65
1032,69.76
1036,69.85
1040,69.98
1044,70.15
1048,70.35
1052,70.57
1056,70.74
1060,70.76
1064,70.78
1068,70.97
1072,71.37
1076,71.75
1080,71.99
1084,72.2
1088,72.36
1092,72.61
1096,72.84
1100,73.02
1104,73.15
1108,73.27
1112,73.41
1116,73.54
1120,73.76
1124,74.05
1128,74.3
1132,74.57
1136,74.84
1140,74.96
1144,75
1148,75.08
1152,75.25
1156,75.5
1160,75.8
1164,76.21
1168,76.73
1172,77.23
1176,77.69
1180,78.08
1184,78.51
1188,79.01
1192,79.5
1196,79.83
1200,80.16
1204,80.59
1208,81.15
1212,81.73
1216,82.23
1220,82.66
1224,83.08
1228,83.53
1232,83.98
1236,84.36
1240,84.63
1244,84.98
1248,85.41
1252,85.88
1256,86.27
1260,86.68
1264,87.13
1268,87.57
1272,87.86
1276,88.1
1280,88.34
1284,88.63
1288,88.77
1292,88.82
1296,88.99
1300,89.32
1304,89.7
1308,89.99
1312,90.21
1316,90.35
1320,90.38
1324,90.32
1328,90.29
1332,90.38
1336,90.46
1340,90.52
1344,90.51
1348,90.43
1352,90.13
1356,89.87
1360,89.62
1364,89.2
1368,88.43
1372,87.08
1376,84.96
1380,81.88
1384,77.59
1388,71.7
1392,64.23
1396,56.38
1400,49.1
1404,42.85
1408,38.06
1412,35.87
1416,37.38
1420,42.24
1424,48.51
1428,54.63
1432,59.92
1436,64.22
1440,67.44
1444,69.57
1448,71
1452,71.86
1456,72.32
1460,72.58
1464,73.11
1468,74.33
1472,76.02
1476,77.67
1480,79.02
1484,80.25
1488,81.54
1492,82.93
1496,84.24
1500,85.27
1504,86.15
1508,87.06
1512,88.01
1516,88.84
1520,89.53
1524,90.29
1528,91.09
1532,91.72
1536,92.21
1540,92.76
1544,93.38
1548,94
1552,94.58
1556,95.1
1560,95.5
1564,95.76
1568,95.87
1572,95.93
1576,96.02
1580,96.28
1584,96.72
1588,97.15
1592,97.28
1596,97.27
1600,97.33
1604,97.57
1608,97.81
1612,98.01
1616,98.13
1620,98.14
1624,98.18
1628,98.18
1632,98.23
1636,98.34
1640,98.49
1644,98.73
1648,98.94
1652,98.98
1656,98.96
1660,99.1
1664,99.47
1668,99.69
1672,99.74
1676,99.77
1680,99.78
1684,99.94
1688,99.94
1692,100
1696,99.96
1700,99.85
1704,99.62
1708,99.29
1712,99.16
1716,99.06
1720,98.95
1724,98.69
1728,98.41
1732,98.2
1736,97.95
1740,97.65
1744,97.33
1748,96.96
1752,96.55
1756,96.14
1760,95.85
1764,95.55
1768,95.28
1772,94.95
1776,94.54
1780,93.99
1784,93.34
1788,92.8
1792,92.5
1796,92.55
1800,92.74
1804,92.84
1808,92.8
1812,92.54
1816,92.17
1820,91.64
1824,91.3
1828,91.04
1832,90.73
1836,90.22
1840,89.2
1844,88
1848,86.66
1852,85.23
1856,83.52
1860,81.31
1864,78.29
1868,73.94
1872,68.61
1876,62.15
1880,54.01
1884,44.64
1888,34.35
1892,24.04
1896,14.69
1900,7.66
1904,3.7
1908,2.82
1912,4.26
1916,7.07
1920,10.3
1924,13.41
1928,16.12
1932,18.48
1936,20.48
1940,22.2
1944,23.55
1948,24.67
1952,25.76
1956,26.81
1960,28.31
1964,29.58
1968,30.96
1972,32.23
1976,33.39
1980,34.51
1984,35.77
1988,37.39
1992,38.85
1996,40.34
2000,42.06
2004,43.8
2008,45.58
2012,47.24
2016,48.89
2020,50.49
2024,52.07
2028,53.69
2032,55.13
2036,56.48
2040,57.41
2044,58.32
2048,59.35
2052,60.03
2056,60.63
2060,61.23
2064,61.8
2068,62.16
2072,62.24
2076,62.17
2080,62.15
2084,62.23
2088,62.31
2092,62.4
2096,62.4
2100,62.42
2104,62.35
2108,62.3
2112,62.34
2116,62.49
2120,62.61
2124,62.5
2128,62.32
2132,62.35
2136,62.15
2140,61.7
2144,60.83
2148,59.56
2152,58.08
2156,56.27
2160,54.27
2164,51.82
2168,48.84
2172,45.76
2176,42.05
2180,37.84
2184,33.08
2188,27.93
2192,22.94
2196,18.51
2200,14.66
2204,11.66
2208,10.4
2212,11.08
2216,13.42
2220,16.8
2224,20.53
2228,24.14
2232,27.18
2236,29.34
2240,30.71
2244,32
2248,33.52
2252,35.53
2256,37.77
2260,39.93
2264,41.62
2268,42.61
2272,42.97
2276,42.73
2280,42.13
2284,41.15
2288,40.06
2292,38.76
2296,37.29
2300,35.69
2304,33.77
2308,31.68
2312,29.5
2316,27.26
2320,24.94
2324,22.61
2328,20.26
2332,17.94
2336,15.77
2340,13.97
2344,12.7
2348,11.77
2352,11.09
2356,10.68
2360,10.47
2364,10.27
2368,10.08
2372,9.8
2376,9.53
2380,9.29
2384,8.97
2388,8.7
2392,8.49
2396,8.28
2400,8.02
2404,7.44
2408,6.81
2412,6.01
2416,5.02
2420,4.06
2424,3.16
2428,2.26
2432,1.37
2436,0.71
2440,0.39
2444,0.15
2448,0.09
2452,0.1
2456,0
2460,0.28
2464,0.68
2468,0.99
2472,1.15
2476,1.39
2480,1.9
2484,2.56
2488,3.39
2492,4.17
2496,4.9
2500,5.69
